Corrected dielectric energy   =     -0.004717314
Total C-PCM charge            =     -0.000000000
C-PCM corrected charges:
    -0.000162435
    -0.000162444
    -0.000122645
     0.000088012
     0.000346384
     0.000346384
     0.000560046
     0.001020668
     0.000560046
     0.001020668
     0.000501532
     0.000501526
     0.000501532
     0.000501526
    -0.000677202
    -0.000677227
    -0.000079981
    -0.000080006
    -0.000269102
    -0.000269094
     0.000489777
     0.000489761
    -0.000269102
    -0.000269094
     0.000489777
     0.000489761
    -0.001769014
    -0.001769045
    -0.000001441
    -0.000001465
    -0.001769014
    -0.001769046
    -0.000001441
    -0.000001465
     0.000378947
     0.000378940
     0.000528872
     0.000528863
     0.000378947
     0.000378940
     0.000528872
     0.000528863
     0.000470222
     0.000470230
     0.000942585
     0.000942577
     0.000470222
     0.000470230
     0.000942585
     0.000942577
     0.001097632
     0.001097631
     0.001174679
     0.001174677
     0.001097632
     0.001097631
     0.001174679
     0.001174677
    -0.000534303
    -0.000534251
     0.000319247
     0.000319240
    -0.000534303
    -0.000534251
     0.000319247
     0.000319240
    -0.000822892
    -0.000822965
    -0.000368995
    -0.000369010
    -0.000822892
    -0.000822965
    -0.000368995
    -0.000369010
     0.000437978
     0.000437981
     0.000795266
     0.000795254
     0.000437978
     0.000437981
     0.000795266
     0.000795254
    -0.000659196
    -0.000659148
     0.000458921
     0.000458903
    -0.000659196
    -0.000659147
     0.000458921
     0.000458903
    -0.000807380
    -0.000807413
     0.000208512
     0.000208495
    -0.000807380
    -0.000807413
     0.000208512
     0.000208495
    -0.001692460
    -0.001692442
     0.000205564
     0.000205543
    -0.001692460
    -0.001692442
     0.000205564
     0.000205543
     0.000119872
     0.000119865
     0.000515247
     0.000515234
     0.000119872
     0.000119865
     0.000515247
     0.000515234
     0.000194228
     0.000194243
     0.000748050
     0.000748036
     0.000194228
     0.000194243
     0.000748050
     0.000748036
     0.001067134
     0.001067134
     0.001206233
     0.001206228
     0.001067134
     0.001067134
     0.001206233
     0.001206228
    -0.000738033
    -0.000737947
     0.000378273
     0.000378261
    -0.000738033
    -0.000737946
     0.000378273
     0.000378261
    -0.001095809
    -0.001095914
    -0.000256383
    -0.000256397
    -0.001095809
    -0.001095914
    -0.000256383
    -0.000256397
     0.000861762
     0.000861762
     0.000886324
     0.000886323
     0.000861762
     0.000861762
     0.000886324
     0.000886323
    -0.000329988
    -0.000329971
     0.000226620
     0.000226617
    -0.000329988
    -0.000329971
     0.000226620
     0.000226617
    -0.000488844
    -0.000488880
    -0.000351564
    -0.000351581
    -0.000488844
    -0.000488880
    -0.000351564
    -0.000351581
     0.000843965
     0.000843966
     0.001057174
     0.001057166
     0.000843965
     0.000843966
     0.001057174
     0.001057166
    -0.000830565
    -0.000830477
     0.000422547
     0.000422531
    -0.000830565
    -0.000830477
     0.000422547
     0.000422531
    -0.001135431
    -0.001135521
    -0.000053533
    -0.000053549
    -0.001135431
    -0.001135521
    -0.000053533
    -0.000053549
    -0.002377032
    -0.002376778
    -0.000312082
    -0.000312101
    -0.002485815
    -0.002485816
     0.000170994
     0.000170973
    -0.000131356
    -0.000131372
    -0.000131356
    -0.000131372
     0.001036063
     0.001036060
     0.001036063
     0.001036061
    -0.000006553
     0.000640226
    -0.000006553
     0.000640226
     0.001022565
     0.001286487
     0.001022565
     0.001286487
    -0.001005226
    -0.001005324
    -0.000387833
    -0.000387847
    -0.000672809
    -0.000672736
     0.000264304
     0.000264296
    -0.000453228
    -0.000453255
    -0.000453228
    -0.000453255
     0.001095885
     0.001095883
     0.001095885
     0.001095883
    -0.000326936
     0.000338535
    -0.000326936
     0.000338535
     0.001069496
     0.001159153
     0.001069496
     0.001159153
    -0.000180446
    -0.000180414
     0.000577728
     0.000577719
    -0.000180446
    -0.000180414
     0.000577728
     0.000577719
     0.000973965
     0.000973966
     0.001220852
     0.001220847
     0.000973965
     0.000973966
     0.001220851
     0.001220847
    -0.000402279
    -0.000402317
    -0.000061725
    -0.000061738
    -0.000402279
    -0.000402317
    -0.000061725
    -0.000061738
    -0.002435012
    -0.002435076
    -0.000241607
    -0.000241626
    -0.002435012
    -0.002435076
    -0.000241607
    -0.000241626
     0.000962612
     0.000962611
     0.001060427
     0.001060421
     0.000962612
     0.000962611
     0.001060427
     0.001060421
    -0.002051573
    -0.002051405
     0.000239438
     0.000239419
    -0.002051573
    -0.002051405
     0.000239438
     0.000239419
    -0.001642252
    -0.001642499
     0.000073905
     0.000073881
    -0.001642252
    -0.001642499
     0.000073905
     0.000073881
     0.000769486
     0.000769483
     0.000822486
     0.000822480
     0.000769486
     0.000769483
     0.000822486
     0.000822480
    -0.001278191
    -0.001278009
    -0.000189143
    -0.000189166
    -0.001278191
    -0.001278009
    -0.000189143
    -0.000189166
     0.000105519
     0.000105506
     0.000205569
     0.000205559
     0.000105519
     0.000105506
     0.000205569
     0.000205560
     0.000806441
     0.000806442
     0.001164235
     0.001164231
     0.000806441
     0.000806442
     0.001164235
     0.001164231
     0.000238896
     0.000238904
     0.000810160
     0.000810155
     0.000238896
     0.000238904
     0.000810160
     0.000810155
    -0.002198647
    -0.002198568
     0.000216618
     0.000216596
    -0.002198647
    -0.002198568
     0.000216618
     0.000216596
     0.000639772
     0.000639771
     0.000821191
     0.000821181
     0.000639772
     0.000639771
     0.000821191
     0.000821181
    -0.002372888
    -0.002372912
    -0.000042260
    -0.000042281
    -0.002372888
    -0.002372912
    -0.000042260
    -0.000042281
    -0.000191256
    -0.000191282
     0.000217473
     0.000217460
    -0.000191256
    -0.000191282
     0.000217473
     0.000217460
     0.000678076
     0.000678080
     0.001023684
     0.001023675
     0.000678076
     0.000678080
     0.001023684
     0.001023675
    -0.000027888
    -0.000027859
     0.000675262
     0.000675250
    -0.000027888
    -0.000027859
     0.000675262
     0.000675250
    -0.001851899
    -0.001852095
    -0.000360357
    -0.000360372
    -0.001851899
    -0.001852095
    -0.000360357
    -0.000360372
    -0.000482937
    -0.000482974
    -0.000293982
    -0.000293998
    -0.000482937
    -0.000482974
    -0.000293982
    -0.000293998
    -0.001316466
    -0.001316298
     0.000262422
     0.000262407
    -0.001316466
    -0.001316298
     0.000262422
     0.000262407
     0.001124086
     0.001124085
     0.001168396
     0.001168393
     0.001124086
     0.001124085
     0.001168396
     0.001168393
    -0.000271666
    -0.000271645
     0.000462082
     0.000462077
    -0.000271666
    -0.000271645
     0.000462082
     0.000462077
     0.001112440
     0.001112440
     0.001279907
     0.001279905
     0.001112440
     0.001112440
     0.001279907
     0.001279905
    -0.000000973
    -0.000000079
    -0.000393846
    -0.000393846
    -0.000000005
    -0.000220202
    -0.000000005
    -0.000220202
    -0.000388890
    -0.000000056
    -0.000388890
    -0.000000056
    -0.002488893
    -0.002488893
    -0.000005896
    -0.000005896
    -0.000003100
    -0.000003100
    -0.000000101
    -0.000000101
    -0.000747324
    -0.000747324
    -0.000938804
    -0.000938804
    -0.002056818
    -0.002326559
    -0.000003496
    -0.000003496
    -0.000000960
    -0.000000960
    -0.000000972
    -0.000000079
    -0.000393851
    -0.000393851
    -0.000220273
    -0.000000005
    -0.000220273
    -0.000000005
    -0.000388789
    -0.000000056
    -0.000388789
    -0.000000056
    -0.002488907
    -0.002488907
    -0.000005894
    -0.000005894
    -0.000003101
    -0.000003101
    -0.000000101
    -0.000000101
    -0.000747422
    -0.000747422
    -0.000938715
    -0.000938715
    -0.002056956
    -0.002326450
    -0.000003493
    -0.000003493
    -0.000000961
    -0.000000961
